time,intensity,distance
0.001,952,3.43
0.002,953,4.34
0.007,954,4.34
0.023,954,4.28
0.039,951,4.39
0.056,952,4.44
0.073,952,4.03
0.090,952,3.98
0.106,951,4.08
0.122,952,4.13
0.140,951,4.13
0.156,952,4.08
0.173,950,4.59
0.189,949,4.64
0.206,950,4.64
0.223,951,4.59
0.239,950,5.15
0.256,947,4.74
0.273,947,4.79
0.289,947,4.74
0.306,946,4.49
0.322,945,4.90
0.339,945,4.54
0.356,946,4.85
0.372,946,5.00
0.389,946,5.05
0.406,945,5.15
0.422,943,5.10
0.439,942,5.30
0.455,946,4.95
0.473,947,5.00
0.489,946,5.36
0.505,944,5.51
0.522,945,5.51
0.539,945,5.51
0.556,943,5.46
0.572,944,5.61
0.588,943,5.66
0.606,943,5.56
0.622,942,5.20
0.638,941,5.36
0.655,941,5.81
0.672,944,5.41
0.689,941,5.76
0.705,943,5.87
0.721,941,5.92
0.739,941,6.26
0.755,939,6.27
0.772,940,6.02
0.788,939,6.07
0.805,938,6.02
0.822,940,6.07
0.838,939,6.17
0.855,937,6.27
0.872,935,6.22
0.888,935,6.38
0.905,936,6.58
0.921,932,6.68
0.939,930,6.68
0.955,930,6.78
0.971,932,6.99
0.988,929,6.99
1.005,928,6.51
1.021,930,6.92
1.038,927,7.09
1.054,927,7.14
1.072,926,7.09
1.088,925,7.60
1.104,926,7.34
1.121,923,7.40
1.138,923,7.34
1.155,923,7.38
1.171,923,7.50
1.187,924,7.55
1.205,923,7.45
1.221,921,7.50
1.238,922,8.06
1.254,919,8.11
1.271,919,8.06
1.288,918,8.16
1.304,918,7.91
1.320,917,8.36
1.338,917,8.31
1.354,917,8.36
1.371,915,8.45
1.387,915,8.52
1.404,914,8.38
1.421,913,8.21
1.437,911,8.69
1.454,912,8.79
1.471,910,8.42
1.487,910,8.87
1.504,908,8.64
1.520,907,9.15
1.538,908,9.08
1.554,908,9.15
1.570,906,9.30
1.587,906,8.94
1.604,906,8.89
1.620,902,8.94
1.637,903,9.55
1.653,901,9.59
1.671,901,9.61
1.687,901,9.28
1.703,900,9.44
1.720,899,9.86
1.737,900,9.95
1.754,898,10.00
1.771,896,9.76
1.787,896,9.71
1.805,894,9.74
1.821,895,9.81
1.838,894,9.96
1.854,892,10.32
1.872,894,10.37
1.890,892,10.46
1.907,891,10.20
1.925,891,10.15
1.943,890,10.63
1.960,892,10.78
1.978,890,10.83
1.996,889,10.78
2.014,890,10.81
2.031,889,10.97
2.049,887,10.88
2.067,887,10.52
2.084,887,10.57
2.102,886,10.71
2.119,884,11.08
2.138,884,11.12
2.155,883,11.17
2.172,883,11.34
2.190,882,11.29
2.208,881,10.93
2.226,880,11.08
2.243,880,11.54
2.262,880,11.49
2.279,878,11.59
2.296,878,11.75
2.314,877,11.70
2.332,875,11.39
2.350,875,11.42
2.367,874,12.04
2.384,875,12.41
2.403,872,12.10
2.420,875,12.21
2.438,873,12.36
2.455,871,12.31
2.473,872,12.39
2.491,869,12.56
2.508,868,12.55
2.527,868,12.21
2.544,867,12.24
2.562,866,12.85
2.579,865,13.26
2.597,863,12.92
2.615,863,12.60
2.632,862,13.16
2.650,862,13.18
2.668,859,13.28
2.685,859,13.74
2.703,859,13.53
2.720,858,13.06
2.739,859,13.57
2.756,859,13.62
2.774,856,13.72
2.792,855,13.79
2.809,853,13.46
2.827,854,14.03
2.844,853,14.04
2.863,852,14.14
2.880,851,14.20
2.897,850,14.35
2.915,850,14.35
2.933,851,14.40
2.951,851,14.43
2.968,849,14.48
2.985,848,14.54
3.004,848,14.60
3.021,849,14.64
3.039,846,14.71
3.056,846,14.81
3.075,846,14.86
3.092,844,14.99
3.109,845,14.94
3.128,843,15.40
3.145,841,15.05
3.163,842,15.20
3.180,840,15.16
3.198,840,15.20
3.216,839,15.71
3.233,840,15.37
3.251,838,15.40
3.269,838,15.47
3.287,836,15.50
3.304,838,15.56
3.321,835,15.62
3.340,835,15.71
3.357,834,15.86
3.375,834,16.29
3.393,835,15.93
3.410,831,16.03
3.428,832,16.06
3.445,829,16.17
3.464,829,16.63
3.481,829,16.34
3.499,827,15.96
3.516,827,16.47
3.534,826,16.54
3.552,826,16.63
3.569,827,16.73
3.587,826,16.80
3.605,823,16.47
3.622,824,17.09
3.640,822,17.10
3.658,820,16.73
3.676,822,16.81
3.693,819,16.90
3.710,818,17.34
3.729,817,17.44
3.746,818,17.49
3.764,816,17.15
3.781,816,17.60
3.800,814,17.70
3.817,815,17.34
3.834,813,17.39
3.852,812,17.90
3.870,812,17.94
3.888,812,17.49
3.905,810,18.05
3.923,810,17.70
3.941,808,18.16
3.958,808,18.26
3.976,807,18.29
3.994,808,18.34
4.012,806,18.41
4.029,806,18.51
4.046,805,18.14
4.065,805,18.21
4.082,803,18.63
4.100,802,18.36
4.117,804,18.39
4.135,804,18.46
4.153,801,18.41
4.170,800,18.56
4.188,800,19.06
4.206,799,19.13
4.224,797,18.82
4.241,797,19.28
4.259,795,18.97
4.277,795,19.06
4.294,794,19.55
4.312,792,19.26
4.330,793,19.33
4.347,791,19.74
4.365,792,19.48
4.382,790,19.58
4.401,789,20.04
4.418,787,19.62
4.435,787,19.82
4.453,787,19.92
4.471,784,19.99
4.489,782,20.08
4.506,783,20.14
4.525,784,20.23
4.542,783,20.30
4.559,780,20.79
4.577,782,20.50
4.595,777,20.60
4.613,777,20.96
4.630,775,20.74
4.647,776,20.86
4.666,776,20.94
4.683,773,20.91
4.701,772,21.11
4.718,772,21.20
4.737,772,21.27
4.754,769,21.37
4.771,767,21.47
4.790,767,21.56
4.807,767,21.98
4.825,766,21.83
4.842,764,21.93
4.860,761,22.03
4.878,762,22.02
4.895,761,22.24
4.913,761,22.32
4.931,758,22.83
4.948,757,22.85
4.966,755,22.63
4.983,755,23.10
5.002,753,23.10
5.019,753,23.24
5.037,751,23.41
5.055,749,23.09
5.072,748,23.49
5.090,748,23.70
5.107,748,23.85
5.126,745,23.90
5.143,743,23.55
5.160,743,24.16
5.178,742,23.92
5.196,739,23.90
5.214,739,24.02
5.231,736,24.62
5.249,734,24.36
5.267,733,24.36
5.284,733,24.51
5.302,730,25.11
5.319,730,24.87
5.338,728,24.87
5.355,726,25.11
5.372,725,25.23
5.391,723,25.28
5.408,721,25.81
5.426,720,25.64
5.443,719,25.76
5.462,719,26.01
5.479,715,25.82
5.496,716,26.38
5.514,713,26.06
5.532,712,26.47
5.550,711,26.11
5.567,712,26.32
5.584,709,26.28
5.603,708,26.38
5.620,707,26.59
5.638,705,26.69
5.656,704,27.03
5.673,704,26.72
5.691,702,26.93
5.708,702,27.00
5.727,701,26.98
5.744,702,27.03
5.762,700,27.61
5.779,699,27.18
5.797,697,27.29
5.815,695,27.39
5.832,694,27.59
5.850,693,27.61
5.868,691,28.08
5.885,691,27.90
5.903,689,27.98
5.921,687,28.02
5.939,687,28.15
5.956,686,28.36
5.974,684,28.46
5.992,683,28.46
6.009,681,28.56
6.027,679,29.15
6.044,679,28.76
6.063,677,29.22
6.080,678,28.92
6.097,675,29.12
6.115,674,29.51
6.133,673,29.17
6.151,673,29.22
6.168,672,29.43
6.187,672,29.38
6.204,670,29.44
6.221,669,29.60
6.239,669,29.53
6.257,669,29.58
6.275,667,29.63
6.292,667,30.19
6.309,667,30.21
6.328,665,30.28
6.345,664,29.94
6.363,663,30.55
6.380,663,30.07
6.398,661,30.53
6.416,661,30.19
6.433,661,30.26
6.451,661,30.35
6.469,660,30.40
6.487,660,30.53
6.504,657,30.91
6.522,656,30.60
6.540,657,30.63
6.557,654,30.84
6.575,654,30.80
6.593,654,30.86
6.610,652,30.94
6.628,653,31.11
6.645,651,31.06
6.664,650,31.11
6.681,650,31.16
6.699,650,31.25
6.716,649,31.35
6.734,646,31.42
6.752,645,31.60
6.769,644,31.62
6.788,643,31.65
6.805,643,31.76
6.822,642,31.96
6.840,642,31.93
6.858,639,31.99
6.876,638,32.13
6.893,637,32.23
6.910,637,32.33
6.929,637,32.42
6.946,635,32.49
6.964,633,32.62
6.981,633,32.73
7.000,631,32.78
7.017,631,33.00
7.034,628,32.98
7.053,629,33.05
7.070,628,33.10
7.088,628,33.18
7.105,625,33.25
7.123,625,33.29
7.141,625,33.41
7.158,623,33.51
7.176,623,33.56
7.194,622,33.66
7.212,622,33.69
7.229,621,33.80
7.246,620,33.86
7.265,618,33.95
7.282,617,34.00
7.300,617,34.10
7.318,617,34.15
7.335,616,34.22
7.353,616,34.31
7.370,614,34.36
7.389,614,34.41
7.406,614,34.43
7.424,613,34.46
7.441,614,34.48
7.459,613,34.48
7.477,612,34.56
7.494,613,34.61
7.512,610,34.68
7.530,610,35.19
7.547,608,34.73
7.565,609,34.87
7.582,607,34.94
7.601,607,34.97
7.618,608,35.02
7.635,608,35.51
7.654,606,35.17
7.671,605,35.26
7.689,603,35.33
7.706,603,35.43
7.725,603,35.96
7.742,600,35.58
7.759,600,35.68
7.777,599,35.79
7.795,600,35.84
7.813,597,35.85
7.830,596,36.48
7.847,595,36.53
7.866,594,36.28
7.883,593,36.86
7.901,591,36.55
7.919,589,36.67
7.937,588,37.18
7.954,588,36.91
7.971,587,37.01
7.990,585,37.09
8.007,585,37.11
8.025,584,37.32
8.042,582,37.43
8.060,581,37.57
8.078,580,37.94
8.095,579,37.77
8.113,578,38.28
8.131,576,38.00
8.148,576,38.15
8.166,573,38.25
8.184,572,38.39
8.202,571,38.40
8.219,570,38.61
8.237,570,39.15
8.255,568,38.81
8.272,567,38.81
8.290,565,39.00
8.307,565,39.05
8.326,564,39.15
8.343,563,39.15
8.360,562,39.36
8.378,561,39.46
8.396,561,39.49
8.414,559,39.61
8.431,560,39.81
8.450,558,39.90
8.467,556,39.88
8.484,555,40.10
8.502,555,40.63
8.520,554,40.32
8.538,553,40.34
8.555,551,40.99
8.572,549,41.16
8.591,549,40.78
8.608,547,40.94
8.626,545,41.63
8.643,546,41.80
8.662,544,41.45
8.679,541,41.60
8.696,539,41.91
8.714,539,42.06
8.732,538,42.52
8.750,536,42.42
8.767,534,42.55
8.785,532,43.01
8.803,531,42.81
8.820,529,43.37
8.838,528,43.55
8.856,527,43.61
8.873,525,43.74
8.891,525,43.61
8.908,523,44.10
8.927,521,44.15
8.944,520,44.23
8.962,519,44.46
8.979,518,44.46
8.997,518,44.56
9.015,516,44.76
9.032,516,44.44
9.051,515,44.81
9.068,514,44.91
9.085,514,45.07
9.103,513,44.80
9.121,512,44.80
9.139,511,45.25
9.156,511,45.48
9.174,510,45.88
9.192,509,45.53
9.209,508,45.63
9.227,508,45.83
9.244,507,45.83
9.263,506,45.92
9.280,504,46.50
9.297,504,46.17
9.316,502,46.17
9.333,502,46.27
9.351,501,46.50
9.368,500,46.90
9.387,499,46.65
9.404,498,47.16
9.421,498,47.02
9.439,497,47.01
9.457,496,47.09
9.475,495,47.21
9.492,495,47.82
9.509,493,47.82
9.528,493,47.48
9.545,493,47.97
9.563,492,47.69
9.581,492,47.77
9.598,491,48.23
9.616,490,48.45
9.633,490,47.97
9.652,488,48.03
9.669,488,48.09
9.687,487,48.25
9.704,486,48.20
9.722,488,48.64
9.740,488,48.74
9.757,485,48.45
9.775,486,48.79
9.793,485,48.47
9.810,486,48.52
9.828,485,48.99
9.845,485,48.62
9.864,485,48.67
9.881,483,49.20
9.899,483,49.18
9.917,483,48.79
9.934,482,49.23
9.952,483,48.99
9.969,482,48.93
9.988,481,48.99
10.005,481,49.06
10.023,480,49.11
10.042,480,49.18
10.061,480,49.25
10.080,480,49.84
10.098,479,49.40
10.118,478,49.45
10.136,477,49.96
10.155,478,49.61
10.173,476,49.67
10.192,475,49.74
10.211,474,49.83
10.229,474,49.91
10.249,473,49.98
10.267,473,50.49
10.286,473,50.12
10.304,471,50.22
10.323,472,49.90
10.342,470,50.37
10.360,471,50.47
10.380,470,50.52
10.398,468,50.61
10.417,467,50.68
10.435,467,50.76
10.455,467,50.85
10.473,466,50.93
10.491,465,51.46
10.510,465,51.12
10.529,465,51.19
10.548,463,51.27
10.566,462,51.37
10.586,462,51.41
10.604,461,51.94
10.622,460,51.58
10.641,460,51.68
10.660,460,52.19
10.679,459,51.83
10.697,458,51.92
10.717,458,51.99
10.735,458,52.07
10.754,456,52.60
10.772,454,52.29
10.791,454,52.79
10.810,454,52.36
10.828,453,52.55
10.848,453,52.63
10.866,452,53.13
10.885,451,52.75
10.903,450,52.82
10.923,451,52.87
10.941,450,52.85
10.959,450,53.01
10.979,449,53.06
10.997,448,53.52
11.016,449,53.60
11.034,448,54.08
11.054,447,53.69
11.072,447,54.09
11.090,446,53.43
11.109,445,53.53
11.128,445,53.62
11.147,445,54.15
11.165,444,53.84
11.185,442,53.96
11.203,442,53.94
11.222,441,54.60
11.240,440,54.72
11.259,439,54.42
11.278,439,54.54
11.296,438,54.66
11.316,438,54.79
11.334,437,54.79
11.353,434,55.00
11.371,435,55.10
11.390,434,55.56
11.409,434,55.15
11.427,432,55.34
11.447,431,55.45
11.465,431,55.81
11.484,430,56.02
11.502,430,55.71
11.522,429,56.17
11.540,428,55.78
11.558,427,55.98
11.578,427,56.49
11.596,427,56.47
11.615,425,56.22
11.633,424,56.70
11.653,425,56.37
11.671,424,56.36
11.689,424,56.95
11.708,423,56.64
11.727,422,56.66
11.746,422,57.24
11.764,422,57.36
11.784,420,57.02
11.802,419,56.98
11.821,420,57.19
11.839,419,57.66
11.858,417,57.26
11.877,417,57.44
11.895,417,57.55
11.915,415,57.65
11.933,414,57.66
11.952,415,58.29
11.970,413,57.95
11.990,412,58.36
12.008,411,58.06
12.026,411,58.26
12.046,411,59.19
12.064,410,58.75
12.083,410,58.96
12.101,409,58.67
12.121,408,58.63
12.139,407,58.75
12.157,407,58.96
12.177,405,59.42
12.195,406,59.38
12.214,404,59.59
12.232,403,59.62
12.252,403,60.03
12.270,404,60.10
12.289,403,59.45
12.307,402,60.23
12.326,402,59.45
12.345,401,60.47
12.363,402,60.10
12.383,400,60.03
12.401,402,59.67
12.420,400,59.82
12.438,401,59.89
12.457,400,59.82
12.476,399,60.44
12.494,398,59.67
12.514,399,60.44
12.532,399,60.08
12.551,398,60.25
12.569,397,60.35
12.589,396,60.35
12.607,397,60.42
12.625,395,60.62
12.645,394,60.59
12.663,393,61.00
12.682,393,60.81
12.700,393,61.29
12.720,393,60.86
12.738,392,60.96
12.756,390,61.95
12.776,391,61.88
12.794,390,61.49
12.813,390,61.23
12.831,390,62.15
12.851,389,61.27
12.869,389,61.34
12.888,390,61.47
12.906,389,61.46
12.925,388,61.88
12.944,387,61.64
12.962,386,61.69
12.982,387,62.15
13.000,387,61.80
13.019,386,61.97
13.037,387,61.93
13.057,387,61.57
13.075,386,62.10
13.093,385,62.14
13.113,384,62.08
13.131,385,62.15
13.150,385,61.93
13.168,384,61.90
13.188,384,61.93
13.206,383,62.00
13.224,383,62.49
13.244,383,62.44
13.262,383,62.95
13.281,382,63.10
13.299,382,62.65
13.319,381,62.70
13.337,380,62.39
13.356,380,62.97
13.375,379,62.92
13.393,380,63.41
13.412,379,63.17
13.430,378,63.14
13.450,378,64.07
13.468,376,63.36
13.487,376,63.58
13.505,375,64.40
13.524,377,63.63
13.543,375,63.82
13.561,375,63.78
13.581,374,64.69
13.599,375,63.89
13.618,373,64.89
13.636,372,64.02
13.656,372,64.09
13.674,371,65.09
13.692,371,65.89
13.712,371,64.75
13.730,368,65.70
13.749,366,65.45
13.767,354,65.06
13.787,349,66.40
13.805,351,65.21
13.824,348,66.11
13.843,348,65.40
13.861,347,66.35
13.880,348,66.59
13.898,346,66.18
13.918,346,67.15
13.936,346,65.98
13.955,346,66.91
13.974,344,66.22
13.992,345,66.74
14.011,344,67.75
14.029,343,66.64
14.049,342,66.81
14.067,342,68.20
14.086,342,67.46
14.104,341,68.37
14.124,341,68.46
14.142,340,67.39
14.160,340,67.78
14.180,339,67.49
14.198,339,67.59
14.217,339,67.69
14.235,339,68.20
14.255,338,67.91
14.273,337,69.22
14.291,338,68.05
14.311,337,68.53
14.329,336,68.63
14.348,336,69.53
14.366,334,68.77
14.386,336,70.50
14.404,335,68.83
14.423,335,68.99
14.442,334,69.46
14.460,334,69.94
14.479,334,70.02
14.497,334,69.24
14.517,333,69.29
14.535,334,69.31
14.554,334,69.38
14.573,333,70.26
14.592,334,69.48
14.610,332,69.53
14.628,333,70.84
14.648,331,70.45
14.666,332,71.23
14.685,333,69.70
14.703,331,69.72
14.723,332,69.77
14.741,332,69.80
14.759,330,69.87
14.779,332,69.51
14.797,332,69.62
14.816,331,70.92
14.834,332,71.01
14.854,331,70.65
14.872,330,69.84
14.891,329,69.46
14.910,330,69.90
14.928,329,69.56
14.947,328,69.63
14.965,329,69.68
14.985,328,69.73
15.003,328,70.07
15.022,326,71.50
15.041,327,70.30
15.059,327,71.52
15.078,327,71.69
15.096,327,70.50
15.116,326,71.42
15.134,325,70.57
15.153,325,71.59
15.172,324,70.84
15.191,324,72.47
15.209,323,71.01
15.227,322,71.13
15.247,323,71.25
15.265,322,71.25
15.284,321,71.47
15.302,320,73.24
15.322,320,73.29
15.340,319,71.88
15.358,319,72.40
15.378,317,72.13
15.396,318,72.15
15.415,316,73.22
15.433,315,72.93
15.453,316,72.68
15.471,314,73.22
15.490,314,73.36
15.509,314,73.08
15.527,314,73.08
15.546,313,74.09
15.564,313,74.56
15.584,312,73.37
15.602,313,73.29
15.621,313,73.88
15.640,317,74.77
15.659,317,74.73
15.677,316,73.66
15.695,315,74.55
15.715,315,74.53
15.733,313,75.07
15.752,314,74.05
15.771,312,74.60
15.790,312,75.05
15.808,312,74.46
15.826,309,75.02
15.846,310,75.87
15.864,309,75.19
15.883,309,75.00
15.901,306,75.97
15.921,306,75.58
15.939,306,75.43
15.958,305,75.53
15.977,306,75.55
15.995,305,77.27
16.014,304,77.42
16.032,305,76.18
16.052,304,75.70
16.070,303,75.82
16.089,303,76.67
16.108,304,76.16
16.126,304,75.40
16.145,303,75.51
16.163,303,75.92
16.183,303,77.09
16.201,303,76.74
16.220,303,76.06
16.239,303,77.27
16.258,303,76.50
16.276,303,77.11
16.294,302,76.36
16.314,301,76.01
16.332,301,76.98
16.351,301,76.82
16.370,286,76.53
16.389,280,76.94
16.407,276,77.25
16.425,274,78.51
16.445,272,78.59
16.463,270,77.67
16.482,283,77.96
16.500,292,78.06
16.520,292,78.97
16.538,291,78.40
16.557,290,79.90
16.576,272,78.30
16.594,269,78.88
16.613,266,80.02
16.631,265,79.31
16.651,276,79.51
16.669,280,80.61
16.688,287,81.46
16.707,276,81.18
16.726,275,80.85
16.744,273,81.09
16.762,270,81.94
16.782,271,82.06
16.800,270,81.72
16.819,262,80.24
16.838,265,81.48
16.857,262,82.01
16.875,262,82.67
16.893,263,81.06
16.913,260,81.21
16.931,263,81.36
16.950,263,81.58
16.969,263,82.84
16.988,259,82.11
17.006,259,82.33
17.025,260,83.62
17.044,259,83.73
17.062,258,82.11
17.081,257,83.84
17.099,257,82.70
17.119,256,82.43
17.137,256,83.10
17.156,255,83.13
17.175,256,82.74
17.193,255,84.05
17.212,254,82.88
17.230,253,84.24
17.250,254,83.13
17.268,252,83.37
17.287,270,83.79
17.306,272,84.35
17.325,271,83.61
17.343,252,83.71
17.361,249,83.81
17.381,246,83.95
17.399,247,84.49
17.418,247,84.20
17.437,246,84.35
17.456,246,84.88
17.474,245,85.83
17.492,246,85.95
17.512,245,85.15
17.530,243,84.80
17.549,243,84.86
17.568,242,84.97
17.587,242,86.27
17.605,242,85.12
17.624,244,86.43
17.643,242,85.27
17.661,243,85.34
17.680,243,85.43
17.698,243,87.16
17.718,242,85.59
17.736,242,86.97
17.755,241,86.70
17.774,241,86.00
17.793,240,86.56
17.811,241,87.11
17.829,240,86.41
17.849,238,86.51
17.867,238,86.65
17.886,238,87.99
17.905,238,88.52
17.924,237,87.38
17.942,238,87.92
17.960,238,88.43
17.980,235,87.69
17.998,236,88.57
18.017,234,88.77
18.036,235,88.04
18.055,234,88.91
18.073,235,87.89
18.092,233,89.25
18.111,234,89.35
18.129,231,88.16
18.148,232,88.40
18.167,230,88.55
18.186,230,88.74
18.204,230,90.56
18.223,229,90.76
18.242,229,89.66
18.260,229,89.27
18.279,226,90.78
18.297,225,90.92
18.317,225,90.95
18.335,226,91.19
18.354,224,91.29
18.373,225,89.71
18.392,224,91.38
18.410,224,90.80
18.428,223,91.29
18.448,223,91.29
18.466,223,91.49
18.485,220,91.22
18.504,221,91.73
18.523,221,90.46
18.541,221,92.31
18.560,219,92.43
18.579,219,93.28
18.597,219,91.26
18.616,218,92.29
18.635,219,91.99
18.654,219,92.40
18.672,216,93.43
18.691,216,93.11
18.710,215,93.52
18.728,215,93.65
18.747,214,93.84
18.766,213,93.93
18.785,213,94.32
18.803,213,93.35
18.822,213,93.86
18.841,212,92.16
18.860,211,93.89
18.878,211,95.34
18.896,208,94.25
18.916,209,93.40
18.934,208,94.40
18.953,207,93.70
18.972,209,94.57
18.991,208,93.84
19.009,209,94.45
19.027,205,95.57
19.047,207,95.03
19.065,204,95.20
19.084,208,94.01
19.103,208,94.83
19.122,208,96.90
19.140,210,95.18
19.159,209,94.38
19.178,209,95.57
19.196,209,94.81
19.215,209,97.39
19.234,209,96.12
19.253,209,96.20
19.271,210,94.42
19.290,210,95.32
19.309,209,121.82
19.329,210,98.67
19.347,209,95.88
19.366,209,95.10
19.385,209,94.76
19.403,209,95.71
19.422,210,96.46
19.441,208,120.26
19.461,208,95.81
19.479,208,95.97
19.499,210,95.49
19.517,208,95.61
19.535,207,176.12
19.555,208,96.68
19.574,208,94.77
19.593,207,95.91
19.611,206,95.35
19.630,205,176.14
19.650,206,95.20
19.668,206,96.83
19.687,205,95.32
19.706,205,96.39
19.725,204,99.21
19.743,205,96.42
19.762,204,96.75
19.781,203,95.95
19.800,204,176.12
19.819,204,101.73
19.840,203,95.23
19.858,202,96.76
19.876,201,95.76
19.895,203,175.24
19.915,201,96.34
19.934,202,97.68
19.952,202,95.71
19.972,202,97.24
19.990,201,100.84
20.009,200,99.33
20.028,200,96.34
20.047,199,98.94
20.066,199,100.86
20.085,200,99.62
20.105,199,98.04
20.123,200,99.91
20.142,199,99.70
20.160,198,99.28
20.179,197,101.54
20.199,198,98.80
20.217,198,100.49
20.238,198,99.88
20.256,198,98.70
20.275,196,101.35
20.294,197,102.32
20.315,197,101.13
20.334,196,98.79
20.353,195,103.43
20.373,196,101.05
20.392,195,99.50
20.411,195,102.54
20.431,195,103.04
20.451,194,102.26
20.470,193,101.03
20.490,192,102.43
20.510,192,101.78
20.530,191,101.20
20.549,192,103.75
20.570,193,103.84
20.589,192,103.02
20.609,192,103.48
20.628,192,101.88
20.648,192,103.68
20.668,191,103.45
20.687,191,102.75
20.708,191,104.26
20.727,191,102.71
20.747,190,102.32
20.767,189,103.63
20.787,188,176.89
20.806,192,104.38
20.826,200,103.22
20.846,202,105.01
20.866,198,104.62
20.885,196,105.04
20.905,195,105.94
20.925,196,106.78
20.944,196,104.02
20.965,196,104.45
20.984,196,103.67
21.004,190,104.92
21.023,188,104.53
21.044,189,104.16
21.063,187,105.45
21.083,186,104.28
21.103,188,106.00
21.123,188,106.35
21.142,187,106.06
21.163,187,105.71
21.182,186,104.52
21.201,185,104.98
21.221,187,105.04
21.241,185,106.34
21.261,186,105.54
21.280,186,107.24
21.301,186,105.66
21.320,184,106.85
21.340,185,106.15
21.359,185,105.33
21.380,185,104.53
21.399,185,106.20
21.419,184,104.99
21.439,184,105.47
21.458,184,104.98
21.478,185,105.54
21.498,186,105.09
21.518,184,106.76
21.537,186,106.93
21.557,186,105.76
21.577,185,105.77
21.597,186,105.79
21.616,186,106.23
21.637,185,105.88
21.656,184,106.23
21.676,185,106.85
21.696,185,107.34
21.715,184,105.72
21.735,185,107.00
21.754,183,105.35
21.775,183,107.08
21.794,185,105.93
21.814,183,106.86
21.834,184,107.36
21.854,184,106.47
21.873,183,105.81
21.893,184,106.71
21.913,183,106.39
21.933,182,107.73
21.952,184,106.17
21.972,182,105.86
21.992,183,106.28
22.011,181,108.15
22.032,181,106.59
22.051,182,107.41
22.071,180,108.46
22.090,182,107.34
22.111,180,106.93
22.130,181,108.77
22.150,178,108.90
22.170,178,108.17
22.190,180,108.56
22.209,179,108.72
22.230,178,109.19
22.249,177,107.92
22.268,177,109.79
22.288,177,108.63
22.308,178,109.02
22.328,176,107.97
22.347,176,108.88
22.368,176,108.99
22.387,176,110.60
22.407,176,109.97
22.427,176,110.08
22.447,175,111.33
22.466,176,110.26
22.486,175,110.35
22.506,175,109.48
22.525,175,109.67
22.545,175,111.01
22.565,174,110.99
22.585,173,111.88
22.604,175,110.35
22.624,173,109.97
22.644,173,111.18
22.664,173,110.09
22.683,173,111.01
22.704,173,111.78
22.723,171,111.86
22.743,176,109.92
22.763,175,111.11
22.782,176,109.96
22.802,176,110.52
22.821,181,111.40
22.842,175,111.79
22.861,172,110.30
22.881,171,111.21
22.901,172,110.77
22.921,171,111.25
22.940,170,111.01
22.961,170,111.40
22.980,168,111.91
23.000,168,111.67
23.019,169,111.78
23.040,169,113.03
23.059,169,113.53
23.078,169,112.08
23.099,168,112.13
23.118,167,112.73
23.138,167,112.98
23.157,168,111.76
23.178,167,113.42
23.197,166,112.52
23.217,165,112.20
23.237,165,113.00
23.257,165,113.85
23.276,170,113.25
23.297,173,113.25
23.316,172,113.05
23.335,173,115.19
23.355,174,115.19
23.375,173,177.72
23.395,173,116.31
23.414,172,114.17
23.435,172,115.50
23.454,172,114.73
23.474,170,115.72
23.494,171,115.70
23.514,167,115.36
23.533,168,176.12
23.553,167,175.70
23.573,164,175.27
23.592,162,117.56
23.612,159,115.45
23.632,158,119.27
23.652,159,177.31
23.671,158,176.14
23.692,158,176.55
23.711,158,175.15
23.731,158,176.12
23.750,157,116.99
23.771,157,175.68
23.790,157,118.25
23.810,155,127.82
23.830,153,175.71
23.849,153,175.15
23.869,153,176.99
23.888,153,118.76
23.909,151,177.72
23.928,150,176.55
23.948,152,176.10
23.968,152,176.53
23.988,152,136.17
24.007,149,176.97
24.028,148,175.70
24.047,146,130.61
24.067,147,127.16
24.086,145,127.26
24.107,145,128.06
24.126,145,128.67
24.145,146,130.03
24.166,145,176.12
24.185,145,175.98
24.205,145,176.09
24.225,143,176.10
24.245,143,176.41
24.264,143,176.95
24.284,143,176.55
24.304,143,176.44
24.324,144,177.38
24.343,143,176.95
24.364,143,176.56
24.383,144,176.87
24.402,144,124.59
24.422,143,176.10
24.442,144,98.79
24.461,143,95.74
24.479,143,96.88
24.499,142,96.44
24.517,142,97.70
24.536,142,176.51
24.555,142,120.17
24.576,143,119.82
24.595,144,123.20
24.614,143,123.25
24.635,141,123.32
24.654,141,125.78
24.674,141,124.30
24.694,141,123.57
24.714,141,124.80
24.733,141,126.67
24.753,152,176.97
24.773,151,176.43
24.793,142,176.95
24.812,138,176.53
24.833,138,176.51
24.852,137,178.55
24.871,138,176.09
24.892,137,176.12
24.911,137,177.70
24.931,136,176.97
24.950,135,180.32
24.971,134,176.48
24.990,134,176.10
25.010,133,177.40
25.030,135,176.56
25.050,135,126.06
25.069,135,176.95
25.090,134,175.70
25.109,133,123.40
25.128,135,176.51
25.148,135,123.25
25.168,134,176.55
25.188,133,177.41
25.207,135,176.10
25.228,135,176.56
25.247,134,126.11
25.267,133,122.55
25.286,133,176.10
25.307,133,176.89
25.326,133,176.97
25.346,132,123.20
25.366,133,176.12
25.385,131,126.60
25.405,132,177.84
25.425,130,126.82
25.445,132,122.62
25.464,131,124.51
25.484,129,179.08
25.504,129,178.96
25.524,127,127.72
25.543,128,124.90
25.564,127,127.82
25.583,126,176.02
25.603,124,126.16
25.623,125,131.09
25.643,124,176.46
25.662,123,176.14
25.681,123,124.98
25.702,121,124.98
25.721,121,123.56
25.741,121,124.19
25.761,120,126.53
25.781,121,132.02
25.800,126,130.34
25.820,130,131.48
25.840,129,125.38
25.860,131,125.97
25.879,131,126.48
25.900,131,126.46
25.919,131,127.36
25.938,130,127.08
25.959,129,128.72
25.978,129,126.67
25.998,129,128.15
26.017,130,129.76
26.038,132,125.17
26.057,130,125.70
26.077,130,126.21
26.097,133,125.39
26.117,131,125.34
26.136,133,125.94
26.157,132,125.95
26.176,132,127.60
26.195,132,125.21
26.215,132,127.84
26.235,130,126.62
26.255,131,129.51
26.274,130,126.87
26.295,131,128.21
26.314,130,136.10
26.334,127,131.16
26.354,128,127.62
26.374,129,126.43
26.393,127,128.79
26.413,127,130.19
26.433,122,129.80
26.452,119,130.02
26.472,118,130.87
26.492,117,135.18
26.512,119,131.33
26.531,117,131.58
26.551,118,177.43
26.571,116,129.46
26.591,114,130.49
26.610,115,130.59
26.631,115,128.49
26.650,115,129.81
26.670,114,129.54
26.690,115,132.31
26.710,114,176.07
26.729,113,128.66
26.748,111,175.68
26.769,112,176.90
26.788,112,176.58
26.808,110,176.15
26.828,111,130.34
26.848,108,176.04
26.867,109,131.89
26.888,109,133.21
26.907,109,175.64
26.927,108,131.60
26.946,106,143.34
26.967,106,176.14
26.986,106,176.14
27.005,103,177.43
27.026,104,176.15
27.045,103,141.51
27.065,103,141.71
27.084,103,176.99
27.105,103,176.48
27.124,103,179.10
27.144,103,146.37
27.164,103,176.60
27.184,103,176.07
27.203,102,177.00
27.224,102,177.84
27.243,102,177.75
27.262,101,176.60
27.282,103,176.14
27.302,103,177.75
27.322,100,177.02
27.341,100,176.15
27.362,100,177.00
27.381,103,176.48
27.401,103,176.15
27.421,102,176.14
27.441,102,140.90
27.460,102,176.14
27.480,100,177.00
27.500,100,177.75
27.520,99,141.87
27.538,99,146.18
27.557,100,144.19
27.577,101,176.89
27.596,100,177.43
27.616,100,176.17
27.636,98,176.05
27.655,100,178.26
27.674,98,175.73
27.694,98,176.15
27.712,99,143.04
27.730,99,144.04
27.749,97,176.56
27.768,98,177.33
27.787,97,179.13
27.805,98,176.56
27.825,97,177.00
27.843,99,177.75
27.862,97,176.14
27.880,97,146.22
27.899,97,145.35
27.918,99,150.47
27.936,97,175.71
27.956,98,142.53
27.974,97,144.67
27.993,95,144.50
28.011,95,146.29
28.030,96,145.06
28.049,97,146.42
28.067,96,147.90
28.087,96,145.06
28.105,98,144.62
28.124,95,144.02
28.142,96,145.33
28.162,95,142.48
28.180,96,144.89
28.198,95,145.95
28.218,96,147.87
28.236,96,148.67
28.255,96,176.14
28.273,95,176.55
28.293,95,175.70
28.311,95,176.02
28.329,96,178.28
28.348,93,149.26
28.367,93,147.76
28.386,94,147.08
28.404,94,151.49
28.424,93,177.00
28.442,96,177.75
28.461,97,177.41
28.479,98,177.41
28.498,98,147.12
28.517,101,176.55
28.536,101,177.38
28.557,100,178.23
28.576,101,175.58
28.596,101,146.54
28.615,100,147.32
28.636,100,145.64
28.655,100,148.60
28.675,102,147.83
28.695,101,176.12
28.715,101,176.46
28.734,100,176.12
28.754,101,175.70
28.774,103,176.00
28.793,103,177.84
28.813,104,176.55
28.833,102,177.72
28.853,105,146.97
28.872,105,143.58
28.893,106,146.46
28.912,104,146.01
28.932,106,177.40
28.952,105,150.33
28.972,106,142.09
28.991,106,143.46
29.010,107,140.90
29.031,103,145.37
29.050,100,142.15
29.070,102,148.24
29.090,101,144.93
29.110,101,147.37
29.129,102,150.28
29.150,101,150.13
29.169,100,177.33
29.189,101,150.74
29.208,101,150.62
29.229,100,149.02
29.248,99,145.15
29.266,102,142.27
29.287,101,141.95
29.306,102,140.18
29.326,102,139.86
29.345,100,143.67
29.366,101,141.90
29.385,102,140.74
29.405,100,140.32
29.425,101,142.07
29.445,100,144.89
29.464,100,177.00
29.485,100,176.10
29.504,98,145.03
29.522,98,176.12
29.541,100,142.61
29.561,99,145.11
29.580,99,175.58
29.598,97,147.90
29.618,97,142.12
29.636,97,141.64
29.655,99,175.27
29.673,102,175.27
29.693,101,176.12
29.713,101,176.46
29.732,98,176.95
